# Table 5 System throughput curve for the WFCAM H filter
# 1.0mm water vapour, 1.3 airmass
# Col 1: wavelength (microns)
# Col 2: throughput
#
  13510.00        0.000000000
  13515.00        0.000000000
  13520.00        0.000000000
  13525.00        0.000000000
  13530.00        0.000000000
  13535.00        0.000000000
  13540.00        0.000000000
  13545.00        0.000000000
  13550.00        0.000000000
  13555.00        0.000000000
  13560.00        0.000000000
  13565.00        0.000000000
  13570.00        0.000000000
  13575.00        0.000000000
  13580.00        0.000000000
  13585.00        0.000000000
  13590.00        0.000000000
  13595.00        0.000000000
  13600.00        0.000000000
  13605.00        0.000000000
  13610.00        0.000000000
  13615.00        0.000000000
  13620.00        0.000000000
  13625.00        0.000000000
  13630.00        0.000000000
  13635.00        0.000000000
  13640.00        0.000000000
  13645.00        0.000000000
  13650.00        0.000000000
  13655.00        0.000000000
  13660.00        0.000000000
  13665.00        0.000000000
  13670.00        0.000000000
  13675.00        0.000000000
  13680.00        0.000000000
  13685.00        0.000000000
  13690.00        0.000000000
  13695.00        0.000000000
  13700.00        0.000000000
  13705.00        0.000000000
  13710.00        0.000000000
  13715.00        0.000000000
  13720.00        0.000000000
  13725.00        0.000000000
  13730.00        0.000000000
  13735.00        0.000000000
  13740.00        0.000000000
  13745.00        0.000000000
  13750.00        0.000000000
  13755.00        0.000000000
  13760.00        0.000000000
  13765.00        0.000000000
  13770.00        0.000000000
  13775.00        0.000000000
  13780.00        0.000000000
  13785.00        0.000000000
  13790.00        0.000000000
  13795.00        0.000000000
  13800.00        0.000000000
  13805.00        0.000000000
  13810.00        0.000000000
  13815.00        0.000000000
  13820.00        0.000000000
  13825.00        0.000000000
  13830.00        0.000000000
  13835.00        0.000000000
  13840.00        0.000000000
  13845.00        0.000000000
  13850.00        0.000000000
  13855.00        0.000000000
  13860.00        0.000000000
  13865.00        0.000000000
  13870.00        0.000100000
  13875.00        0.000000000
  13880.00        0.000000000
  13885.00        0.000000000
  13890.00        0.000100000
  13895.00        0.000100000
  13900.00        0.000000000
  13905.00        0.000100000
  13910.00        0.000100000
  13915.00        0.000100000
  13920.00        0.000000000
  13925.00        0.000000000
  13930.00        0.000100000
  13935.00        0.000100000
  13940.00        0.000100000
  13945.00        0.000100000
  13950.00        0.000000000
  13955.00        0.000000000
  13960.00        0.000000000
  13965.00        0.000000000
  13970.00        0.000100000
  13975.00        0.000100000
  13980.00        0.000100000
  13985.00        0.000100000
  13990.00        0.000100000
  13995.00        0.000000000
  14000.00        0.000000000
  14005.00        0.000000000
  14010.00        0.000000000
  14015.00        0.000000000
  14020.00        0.000100000
  14025.00        0.000200000
  14030.00        0.000100000
  14035.00        0.000200000
  14040.00        0.000100000
  14045.00        0.000100000
  14050.00        0.000000000
  14055.00        0.000100000
  14060.00        0.000200000
  14065.00        0.000200000
  14070.00        0.000000000
  14075.00        0.000000000
  14080.00        0.000200000
  14085.00        0.000200000
  14090.00        0.000100000
  14095.00        0.000000000
  14100.00        0.000200000
  14105.00        0.000200000
  14110.00        0.000200000
  14115.00        0.000200000
  14120.00        0.000200000
  14125.00        0.000200000
  14130.00        0.000300000
  14135.00        0.000200000
  14140.00        0.000200000
  14145.00        0.000100000
  14150.00        0.000200000
  14155.00        0.000200000
  14160.00        0.000400000
  14165.00        0.000400000
  14170.00        0.000300000
  14175.00        0.000300000
  14180.00        0.000300000
  14185.00        0.000400000
  14190.00        0.000100000
  14195.00        0.000200000
  14200.00        0.000300000
  14205.00        0.000400000
  14210.00        0.000500000
  14215.00        0.000500000
  14220.00        0.000600000
  14225.00        0.000600000
  14230.00        0.000500000
  14235.00        0.000400000
  14240.00        0.000200000
  14245.00        0.000700000
  14250.00        0.000600000
  14255.00        0.000500000
  14260.00        0.000600000
  14265.00        0.000800000
  14270.00        0.000800000
  14275.00        0.000600000
  14280.00        0.000600000
  14285.00        0.000600000
  14290.00        0.000600000
  14295.00        0.000900000
  14300.00        0.000700000
  14305.00        0.001100000
  14310.00        0.000700000
  14315.00        0.000600000
  14320.00        0.000700000
  14325.00        0.000300000
  14330.00        0.000900000
  14335.00        0.001200000
  14340.00        0.001100000
  14345.00        0.000600000
  14350.00        0.001300000
  14355.00        0.001300000
  14360.00        0.001000000
  14365.00        0.001300000
  14370.00        0.001400000
  14375.00        0.000900000
  14380.00        0.000900000
  14385.00        0.001600000
  14390.00        0.001800000
  14395.00        0.001000000
  14400.00        0.001900000
  14405.00        0.001700000
  14410.00        0.002000000
  14415.00        0.001200000
  14420.00        0.002300000
  14425.00        0.002300000
  14430.00        0.001300000
  14435.00        0.002700000
  14440.00        0.002600000
  14445.00        0.002500000
  14450.00        0.002900000
  14455.00        0.001200000
  14460.00        0.002000000
  14465.00        0.003300000
  14470.00        0.002600000
  14475.00        0.003400000
  14480.00        0.003700000
  14485.00        0.003900000
  14490.00        0.004100000
  14495.00        0.004200000
  14500.00        0.003500000
  14505.00        0.002200000
  14510.00        0.002800000
  14515.00        0.004900000
  14520.00        0.004500000
  14525.00        0.005300000
  14530.00        0.004300000
  14535.00        0.006000000
  14540.00        0.006300000
  14545.00        0.006100000
  14550.00        0.006200000
  14555.00        0.005000000
  14560.00        0.007200000
  14565.00        0.007700000
  14570.00        0.007500000
  14575.00        0.007700000
  14580.00        0.008400000
  14585.00        0.009100000
  14590.00        0.009600000
  14595.00        0.010000000
  14600.00        0.009900000
  14605.00        0.008200000
  14610.00        0.010900000
  14615.00        0.010600000
  14620.00        0.012300000
  14625.00        0.012700000
  14630.00        0.010300000
  14635.00        0.012200000
  14640.00        0.014100000
  14645.00        0.015699999
  14650.00        0.013200000
  14655.00        0.013800000
  14660.00        0.013700000
  14665.00        0.013700000
  14670.00        0.013200000
  14675.00        0.018800000
  14680.00        0.018100001
  14685.00        0.021400001
  14690.00        0.022100000
  14695.00        0.016000001
  14700.00        0.023499999
  14705.00        0.018600000
  14710.00        0.016400000
  14715.00        0.026400000
  14720.00        0.027600000
  14725.00        0.017600000
  14730.00        0.030300001
  14735.00        0.031099999
  14740.00        0.032200001
  14745.00        0.037500001
  14750.00        0.039500002
  14755.00        0.038300000
  14760.00        0.032000002
  14765.00        0.043800000
  14770.00        0.035100002
  14775.00        0.046300001
  14780.00        0.034200002
  14785.00        0.052499998
  14790.00        0.051500000
  14795.00        0.041900001
  14800.00        0.054699998
  14805.00        0.042100001
  14810.00        0.063600004
  14815.00        0.059400000
  14820.00        0.055700000
  14825.00        0.071300000
  14830.00        0.072899997
  14835.00        0.077299997
  14840.00        0.080300003
  14845.00        0.067800000
  14850.00        0.086700000
  14855.00        0.083899997
  14860.00        0.089900002
  14865.00        0.080700003
  14870.00        0.092500001
  14875.00        0.097499996
  14880.00        0.092699997
  14885.00        0.108499996
  14890.00        0.113799997
  14895.00        0.108999997
  14900.00        0.121299997
  14905.00        0.127499998
  14910.00        0.130300000
  14915.00        0.105899997
  14920.00        0.132499993
  14925.00        0.137899995
  14930.00        0.139799997
  14935.00        0.148100004
  14940.00        0.147599995
  14945.00        0.153500006
  14950.00        0.147300005
  14955.00        0.158500001
  14960.00        0.161899999
  14965.00        0.150399998
  14970.00        0.172999993
  14975.00        0.173400000
  14980.00        0.168899998
  14985.00        0.179800004
  14990.00        0.181899995
  14995.00        0.185299993
  15000.00        0.189700007
  15005.00        0.193200007
  15010.00        0.195899993
  15015.00        0.198100001
  15020.00        0.195999995
  15025.00        0.201100007
  15030.00        0.201100007
  15035.00        0.201499999
  15040.00        0.192499995
  15045.00        0.203500003
  15050.00        0.209199995
  15055.00        0.214300007
  15060.00        0.215499997
  15065.00        0.218300000
  15070.00        0.218899995
  15075.00        0.219799995
  15080.00        0.221699998
  15085.00        0.215100005
  15090.00        0.213699996
  15095.00        0.225799993
  15100.00        0.226199999
  15105.00        0.226899996
  15110.00        0.226500005
  15115.00        0.229000002
  15120.00        0.230499998
  15125.00        0.227899998
  15130.00        0.229100004
  15135.00        0.230599999
  15140.00        0.229900002
  15145.00        0.233400002
  15150.00        0.232700005
  15155.00        0.234400004
  15160.00        0.234699994
  15165.00        0.233899996
  15170.00        0.234599993
  15175.00        0.233099997
  15180.00        0.236699998
  15185.00        0.236100003
  15190.00        0.234599993
  15195.00        0.236699998
  15200.00        0.237700000
  15205.00        0.236900002
  15210.00        0.238800004
  15215.00        0.238800004
  15220.00        0.238199994
  15225.00        0.239500001
  15230.00        0.239700004
  15235.00        0.239199996
  15240.00        0.240099996
  15245.00        0.238499999
  15250.00        0.239800006
  15255.00        0.239999995
  15260.00        0.239999995
  15265.00        0.239999995
  15270.00        0.240500003
  15275.00        0.239999995
  15280.00        0.241099998
  15285.00        0.241200000
  15290.00        0.241500005
  15295.00        0.241300002
  15300.00        0.241500005
  15305.00        0.241699994
  15310.00        0.241999999
  15315.00        0.241300002
  15320.00        0.242100000
  15325.00        0.241999999
  15330.00        0.241899997
  15335.00        0.241699994
  15340.00        0.241400003
  15345.00        0.241600007
  15350.00        0.241200000
  15355.00        0.241799995
  15360.00        0.242200002
  15365.00        0.242699996
  15370.00        0.243300006
  15375.00        0.244100004
  15380.00        0.244299993
  15385.00        0.244000003
  15390.00        0.243900001
  15395.00        0.243900001
  15400.00        0.243699998
  15405.00        0.244000003
  15410.00        0.244599998
  15415.00        0.244700000
  15420.00        0.244700000
  15425.00        0.245199993
  15430.00        0.245600000
  15435.00        0.246199995
  15440.00        0.246600002
  15445.00        0.246600002
  15450.00        0.246999994
  15455.00        0.247299999
  15460.00        0.247500002
  15465.00        0.247799993
  15470.00        0.248099998
  15475.00        0.248300001
  15480.00        0.248500004
  15485.00        0.248699993
  15490.00        0.248899996
  15495.00        0.249100000
  15500.00        0.249400005
  15505.00        0.249599993
  15510.00        0.249699995
  15515.00        0.250000000
  15520.00        0.249899998
  15525.00        0.250400007
  15530.00        0.250600010
  15535.00        0.250800014
  15540.00        0.250999987
  15545.00        0.251199991
  15550.00        0.251399994
  15555.00        0.251599997
  15560.00        0.251800001
  15565.00        0.252000004
  15570.00        0.252200007
  15575.00        0.252400011
  15580.00        0.252600014
  15585.00        0.252799988
  15590.00        0.252999991
  15595.00        0.253199995
  15600.00        0.253399998
  15605.00        0.253600001
  15610.00        0.253699988
  15615.00        0.253899992
  15620.00        0.254099995
  15625.00        0.254200011
  15630.00        0.254500002
  15635.00        0.254599988
  15640.00        0.254799992
  15645.00        0.254900008
  15650.00        0.255199999
  15655.00        0.255299985
  15660.00        0.255400002
  15665.00        0.255600005
  15670.00        0.255600005
  15675.00        0.255600005
  15680.00        0.255199999
  15685.00        0.254500002
  15690.00        0.253100008
  15695.00        0.251100004
  15700.00        0.248600006
  15705.00        0.246000007
  15710.00        0.243900001
  15715.00        0.241799995
  15720.00        0.240500003
  15725.00        0.242100000
  15730.00        0.241099998
  15735.00        0.243900001
  15740.00        0.244800001
  15745.00        0.249300003
  15750.00        0.254500002
  15755.00        0.256500006
  15760.00        0.252099991
  15765.00        0.248099998
  15770.00        0.246099994
  15775.00        0.247600004
  15780.00        0.248999998
  15785.00        0.250099987
  15790.00        0.248600006
  15795.00        0.247600004
  15800.00        0.247199997
  15805.00        0.249500006
  15810.00        0.250699997
  15815.00        0.251100004
  15820.00        0.253300011
  15825.00        0.254599988
  15830.00        0.254900008
  15835.00        0.256399989
  15840.00        0.257200003
  15845.00        0.257699996
  15850.00        0.258500010
  15855.00        0.258899987
  15860.00        0.259299994
  15865.00        0.259299994
  15870.00        0.259299994
  15875.00        0.259499997
  15880.00        0.259499997
  15885.00        0.259600013
  15890.00        0.259700000
  15895.00        0.259799987
  15900.00        0.259799987
  15905.00        0.259900004
  15910.00        0.259900004
  15915.00        0.259900004
  15920.00        0.259999990
  15925.00        0.259900004
  15930.00        0.260100007
  15935.00        0.260100007
  15940.00        0.260199994
  15945.00        0.260100007
  15950.00        0.260199994
  15955.00        0.260300010
  15960.00        0.260300010
  15965.00        0.260300010
  15970.00        0.260300010
  15975.00        0.260100007
  15980.00        0.259799987
  15985.00        0.259099990
  15990.00        0.257800013
  15995.00        0.255899996
  16000.00        0.253699988
  16005.00        0.251199991
  16010.00        0.248600006
  16015.00        0.246800005
  16020.00        0.245800003
  16025.00        0.243399993
  16030.00        0.245199993
  16035.00        0.245700002
  16040.00        0.246800005
  16045.00        0.251800001
  16050.00        0.254900008
  16055.00        0.258899987
  16060.00        0.257999986
  16065.00        0.254099995
  16070.00        0.252299994
  16075.00        0.252299994
  16080.00        0.252499998
  16085.00        0.252799988
  16090.00        0.251100004
  16095.00        0.249699995
  16100.00        0.248999998
  16105.00        0.251100004
  16110.00        0.252200007
  16115.00        0.252400011
  16120.00        0.255199999
  16125.00        0.256399989
  16130.00        0.257499993
  16135.00        0.259499997
  16140.00        0.260699987
  16145.00        0.261900008
  16150.00        0.262499988
  16155.00        0.262800008
  16160.00        0.263000011
  16165.00        0.262899995
  16170.00        0.263099998
  16175.00        0.263399988
  16180.00        0.263599992
  16185.00        0.263999999
  16190.00        0.263999999
  16195.00        0.264299989
  16200.00        0.264499992
  16205.00        0.264600009
  16210.00        0.264800012
  16215.00        0.264800012
  16220.00        0.264999986
  16225.00        0.265100002
  16230.00        0.265199989
  16235.00        0.265300006
  16240.00        0.265100002
  16245.00        0.265599996
  16250.00        0.265700012
  16255.00        0.265599996
  16260.00        0.265199989
  16265.00        0.265700012
  16270.00        0.265700012
  16275.00        0.265700012
  16280.00        0.265399992
  16285.00        0.265500009
  16290.00        0.265899986
  16295.00        0.265799999
  16300.00        0.266000003
  16305.00        0.263799995
  16310.00        0.265799999
  16315.00        0.265599996
  16320.00        0.265599996
  16325.00        0.265399992
  16330.00        0.263500005
  16335.00        0.265100002
  16340.00        0.265599996
  16345.00        0.265300006
  16350.00        0.265199989
  16355.00        0.260199994
  16360.00        0.264899999
  16365.00        0.264800012
  16370.00        0.264999986
  16375.00        0.261500001
  16380.00        0.262600005
  16385.00        0.264099985
  16390.00        0.263500005
  16395.00        0.263000011
  16400.00        0.262300014
  16405.00        0.255800009
  16410.00        0.262199998
  16415.00        0.261500001
  16420.00        0.261099994
  16425.00        0.260899991
  16430.00        0.247999996
  16435.00        0.260300010
  16440.00        0.260500014
  16445.00        0.260899991
  16450.00        0.261000007
  16455.00        0.242799997
  16460.00        0.260600001
  16465.00        0.260300010
  16470.00        0.259499997
  16475.00        0.258300006
  16480.00        0.253600001
  16485.00        0.254099995
  16490.00        0.257200003
  16495.00        0.256900012
  16500.00        0.257400006
  16505.00        0.256599993
  16510.00        0.241099998
  16515.00        0.255800009
  16520.00        0.255600005
  16525.00        0.256199986
  16530.00        0.256000012
  16535.00        0.251599997
  16540.00        0.252999991
  16545.00        0.255299985
  16550.00        0.254099995
  16555.00        0.254000008
  16560.00        0.253800005
  16565.00        0.246800005
  16570.00        0.253300011
  16575.00        0.253399998
  16580.00        0.253100008
  16585.00        0.252700001
  16590.00        0.252400011
  16595.00        0.249300003
  16600.00        0.251599997
  16605.00        0.251800001
  16610.00        0.251399994
  16615.00        0.250699997
  16620.00        0.250400007
  16625.00        0.248500004
  16630.00        0.250200003
  16635.00        0.249599993
  16640.00        0.249699995
  16645.00        0.249500006
  16650.00        0.248600006
  16655.00        0.222100005
  16660.00        0.230000004
  16665.00        0.240099996
  16670.00        0.244399995
  16675.00        0.247199997
  16680.00        0.247400001
  16685.00        0.247299999
  16690.00        0.247799993
  16695.00        0.247500002
  16700.00        0.247600004
  16705.00        0.246999994
  16710.00        0.247099996
  16715.00        0.245900005
  16720.00        0.247199997
  16725.00        0.247099996
  16730.00        0.247099996
  16735.00        0.246999994
  16740.00        0.246900007
  16745.00        0.239700004
  16750.00        0.246900007
  16755.00        0.246600002
  16760.00        0.246999994
  16765.00        0.246999994
  16770.00        0.246800005
  16775.00        0.239600003
  16780.00        0.246900007
  16785.00        0.246800005
  16790.00        0.247299999
  16795.00        0.247199997
  16800.00        0.247199997
  16805.00        0.246800005
  16810.00        0.244700000
